           1  Distribution indicator
   12206844.3386962       Energy required by melter (W)
   13167104.2172421       Combustion Heat Transfer to Melter (W)
   1422.72205903257       Mean Surface Temperature (K)

         Surface Temperature (K)

 X / Y          -0.310     -0.155      0.610      1.829      3.048      4.267      5.486      6.706      7.925      9.144     10.363
     -0.310        0.0        0.0        0.0        0.0        0.0        0.0        0.0        0.0        0.0        0.0        0.0
     -0.155        0.0        0.0        0.0        0.0        0.0        0.0        0.0        0.0        0.0        0.0        0.0
      0.744        0.0        0.0     1373.1     1337.3     1319.2     1324.5     1332.9     1308.5     1298.6     1316.1     1447.7
      2.232        0.0        0.0     1375.6     1356.4     1337.0     1340.2     1349.2     1322.7     1310.6     1318.5     1449.7
      2.977        0.0        0.0     1376.3     1367.0     1346.9     1348.7     1357.1     1329.2     1316.4     1321.1     1449.7
      3.174        0.0        0.0     1376.5     1369.8     1349.6     1350.9     1359.2     1331.0     1318.0     1321.7     1449.7
      3.383        0.0        0.0     1376.7     1372.8     1352.4     1353.3     1361.4     1332.8     1319.6     1322.5     1449.7
      3.409        0.0        0.0     1376.7     1373.2     1352.7     1353.6     1361.6     1333.0     1319.8     1322.6     1449.7
      3.619        0.0        0.0     1376.9     1376.1     1355.5     1355.9     1363.8     1334.9     1321.5     1323.3     1449.7
      4.011        0.0        0.0     1377.1     1380.4     1359.6     1359.6     1367.7     1338.2     1324.5     1325.7     1447.8
      4.221        0.0        0.0     1377.1     1382.7     1361.7     1361.6     1369.7     1339.9     1326.1     1327.0     1446.8
      4.247        0.0        0.0     1377.1     1383.0     1362.0     1361.8     1370.0     1340.2     1326.3     1327.1     1446.7
      4.456        0.0        0.0     1377.2     1385.2     1364.2     1363.8     1372.0     1341.9     1327.9     1328.4     1445.7
      4.653        0.0        0.0     1377.3     1387.4     1366.2     1365.7     1373.9     1343.6     1329.4     1329.6     1444.7
      5.326        0.0        0.0     1377.3     1394.5     1372.9     1371.8     1380.3     1349.2     1334.6     1334.2     1442.4
      6.214        0.0        0.0     1377.1     1403.6     1381.3     1379.4     1388.5     1356.5     1341.2     1341.1     1441.1
      6.443        0.0        0.0     1377.1     1405.9     1383.4     1381.3     1390.6     1358.3     1343.0     1342.9     1440.8
      6.469        0.0        0.0     1377.0     1406.2     1383.7     1381.5     1390.8     1358.6     1343.2     1343.2     1440.7
      6.697        0.0        0.0     1377.6     1408.3     1385.0     1383.2     1392.7     1360.3     1344.7     1344.9     1442.2
      7.128        0.0        0.0     1378.7     1412.3     1387.3     1386.3     1396.2     1363.5     1347.7     1348.1     1445.3
      7.356        0.0        0.0     1379.3     1414.4     1388.5     1388.0     1398.0     1365.2     1349.3     1349.8     1446.9
      7.382        0.0        0.0     1379.4     1414.6     1388.7     1388.2     1398.2     1365.4     1349.5     1350.0     1447.1
      7.592        0.0        0.0     1380.0     1416.6     1389.8     1389.7     1399.9     1366.9     1350.9     1351.6     1448.6
      7.807        0.0        0.0     1380.5     1418.5     1391.0     1391.3     1401.6     1368.5     1352.4     1353.2     1450.2
      8.549        0.0        0.0     1387.6     1422.0     1391.6     1396.5     1407.3     1373.0     1357.3     1358.1     1459.6
      9.488        0.0        0.0     1398.8     1425.1     1391.5     1402.5     1414.1     1377.8     1362.8     1363.9     1473.9
      9.716        0.0        0.0     1403.5     1425.0     1391.3     1403.2     1415.2     1377.8     1363.1     1364.9     1479.5
      9.742        0.0        0.0     1404.1     1425.0     1391.3     1403.3     1415.4     1377.8     1363.2     1365.0     1480.1
      9.970        0.0        0.0     1408.8     1424.9     1391.1     1403.9     1416.5     1377.8     1363.6     1366.0     1485.7
     10.401        0.0        0.0     1417.6     1424.7     1390.7     1405.1     1418.7     1377.8     1364.3     1368.0     1496.3
     10.629        0.0        0.0     1422.3     1424.6     1390.5     1405.7     1419.9     1377.8     1364.7     1369.0     1501.9
     10.655        0.0        0.0     1422.9     1424.6     1390.5     1405.8     1420.0     1377.8     1364.7     1369.1     1502.5
     10.884        0.0        0.0     1427.8     1427.3     1393.0     1406.2     1420.8     1377.8     1364.9     1370.0     1506.8
     11.835        0.0        0.0     1449.8     1460.5     1425.5     1405.6     1420.8     1376.8     1364.0     1373.1     1514.4
     12.779        0.0        0.0     1467.4     1473.8     1446.4     1417.7     1420.6     1388.1     1371.1     1376.6     1515.1
     13.001        0.0        0.0     1470.8     1473.4     1449.2     1422.9     1420.5     1393.0     1374.2     1377.5     1514.0
     13.027        0.0        0.0     1471.2     1473.4     1449.5     1423.5     1420.5     1393.6     1374.6     1377.6     1513.9
     13.250        0.0        0.0     1474.5     1472.9     1452.3     1428.7     1420.4     1398.5     1377.7     1378.6     1512.8
     13.667        0.0        0.0     1480.9     1472.1     1457.6     1438.4     1420.2     1407.8     1383.5     1380.3     1510.8
     13.889        0.0        0.0     1481.9     1473.5     1459.9     1443.2     1427.2     1414.3     1385.4     1381.2     1508.3
     13.916        0.0        0.0     1482.0     1473.7     1460.1     1443.7     1428.1     1415.1     1385.6     1381.4     1508.0
     14.136        0.0        0.0     1482.9     1475.2     1462.3     1448.4     1435.8     1421.7     1387.4     1382.3     1505.4
     14.346        0.0        0.0     1483.7     1476.7     1464.4     1452.9     1443.1     1428.0     1389.0     1383.3     1502.9
     15.095        0.0        0.0     1486.5     1481.9     1471.8     1468.7     1469.1     1450.5     1395.0     1386.6     1494.0
     16.071        0.0        0.0     1475.6     1480.4     1478.3     1474.4     1463.9     1461.9     1413.6     1389.0     1535.9
     16.312        0.0        0.0     1475.4     1480.3     1478.6     1473.9     1463.9     1462.5     1419.5     1391.3     1559.9
     16.338        0.0        0.0     1475.5     1480.2     1478.5     1473.7     1463.9     1462.5     1419.7     1391.2     1558.9
     16.579        0.0        0.0     1475.7     1479.4     1477.7     1471.5     1464.5     1462.3     1421.7     1390.9     1549.7
     17.034        0.0        0.0     1476.2     1477.9     1476.0     1467.4     1465.5     1461.8     1425.4     1390.2     1532.5
     17.275        0.0        0.0     1476.9     1476.5     1473.9     1466.5     1462.7     1460.2     1426.1     1390.4     1530.2
     17.301        0.0        0.0     1476.9     1476.4     1473.7     1466.4     1462.3     1460.0     1426.2     1390.4     1529.9
     17.542        0.0        0.0     1477.6     1475.0     1471.5     1465.4     1459.5     1458.4     1426.9     1390.5     1527.6
     18.522        0.0        0.0     1478.8     1469.4     1462.8     1458.6     1451.7     1452.0     1427.4     1391.6     1527.7
     19.406        0.0        0.0     1464.2     1461.5     1456.4     1453.2     1446.9     1447.7     1426.2     1392.3     1531.5
     19.550        0.0        0.0     1461.3     1459.5     1455.1     1452.3     1445.9     1447.3     1425.9     1392.4     1532.1
     19.576        0.0        0.0     1460.8     1459.1     1454.9     1452.2     1445.8     1447.2     1425.8     1392.4     1532.2
     19.721        0.0        0.0     1457.9     1457.1     1453.7     1451.3     1444.8     1446.7     1425.5     1392.4     1532.7
     19.983        0.0        0.0     1452.6     1453.4     1451.4     1449.8     1443.1     1445.8     1425.0     1392.5     1533.7
     20.128        0.0        0.0     1450.9     1451.9     1450.4     1449.0     1442.2     1445.5     1424.5     1392.6     1534.3
     20.154        0.0        0.0     1450.7     1451.7     1450.2     1448.9     1442.0     1445.4     1424.4     1392.6     1534.4
     20.298        0.0        0.0     1449.7     1450.5     1449.3     1448.1     1441.0     1445.2     1423.8     1392.7     1535.1
     21.180        0.0        0.0     1444.4     1443.9     1444.2     1443.4     1435.3     1444.3     1420.4     1409.4     1539.5
     22.682        0.0        0.0     1436.2     1436.1     1437.3     1434.9     1429.6     1444.6     1415.8     1424.6     1547.6
     24.183        0.0        0.0     1429.7     1429.9     1431.1     1428.3     1430.7     1440.2     1413.7     1425.2     1556.2
     25.685        0.0        0.0     1424.2     1424.8     1425.9     1425.0     1430.5     1431.8     1414.3     1425.8     1564.8
     27.187        0.0        0.0     1419.7     1420.6     1421.9     1422.9     1428.4     1426.1     1414.5     1426.4     1572.7
     28.688        0.0        0.0     1416.0     1417.1     1418.8     1420.8     1425.7     1422.5     1414.2     1427.2     1578.7
     30.190        0.0        0.0     1412.9     1414.3     1416.2     1418.8     1423.2     1419.9     1413.4     1428.0     1582.3
     31.692        0.0        0.0     1410.4     1412.0     1414.0     1416.7     1421.2     1418.1     1412.0     1428.8     1584.5
     33.193        0.0        0.0     1408.4     1410.4     1411.8     1414.6     1419.6     1416.7     1410.1     1429.5     1586.3
     34.695        0.0        0.0     1406.5     1409.2     1409.9     1412.5     1418.7     1416.0     1407.6     1430.0     1588.6
     36.197        0.0        0.0     1404.7     1408.4     1408.3     1410.4     1418.6     1416.3     1404.7     1430.5     1591.9
     37.699        0.0        0.0     1402.6     1407.5     1407.3     1408.7     1419.1     1417.8     1400.3     1431.4     1596.5
     39.200        0.0        0.0     1399.9     1406.2     1407.4     1407.1     1419.8     1420.7     1393.1     1432.8     1600.6
     40.702        0.0        0.0     1396.5     1404.2     1408.6     1404.8     1418.1     1429.4     1374.3     1433.4     1601.6
     41.608        0.0        0.0        0.0        0.0        0.0        0.0        0.0        0.0        0.0        0.0        0.0
     41.763        0.0        0.0        0.0        0.0        0.0        0.0        0.0        0.0        0.0        0.0        0.0

 X / Y          11.050     11.205     11.283
     -0.310        0.0        0.0        0.0
     -0.155        0.0        0.0        0.0
      0.744        0.0        0.0        0.0
      2.232        0.0        0.0        0.0
      2.977        0.0        0.0        0.0
      3.174        0.0        0.0        0.0
      3.383        0.0        0.0        0.0
      3.409        0.0        0.0        0.0
      3.619        0.0        0.0        0.0
      4.011        0.0        0.0        0.0
      4.221        0.0        0.0        0.0
      4.247        0.0        0.0        0.0
      4.456        0.0        0.0        0.0
      4.653        0.0        0.0        0.0
      5.326        0.0        0.0        0.0
      6.214        0.0        0.0        0.0
      6.443        0.0        0.0        0.0
      6.469        0.0        0.0        0.0
      6.697        0.0        0.0        0.0
      7.128        0.0        0.0        0.0
      7.356        0.0        0.0        0.0
      7.382        0.0        0.0        0.0
      7.592        0.0        0.0        0.0
      7.807        0.0        0.0        0.0
      8.549        0.0        0.0        0.0
      9.488        0.0        0.0        0.0
      9.716        0.0        0.0        0.0
      9.742        0.0        0.0        0.0
      9.970        0.0        0.0        0.0
     10.401        0.0        0.0        0.0
     10.629        0.0        0.0        0.0
     10.655        0.0        0.0        0.0
     10.884        0.0        0.0        0.0
     11.835        0.0        0.0        0.0
     12.779        0.0        0.0        0.0
     13.001        0.0        0.0        0.0
     13.027        0.0        0.0        0.0
     13.250        0.0        0.0        0.0
     13.667        0.0        0.0        0.0
     13.889        0.0        0.0        0.0
     13.916        0.0        0.0        0.0
     14.136        0.0        0.0        0.0
     14.346        0.0        0.0        0.0
     15.095        0.0        0.0        0.0
     16.071        0.0        0.0        0.0
     16.312        0.0        0.0        0.0
     16.338        0.0        0.0        0.0
     16.579        0.0        0.0        0.0
     17.034        0.0        0.0        0.0
     17.275        0.0        0.0        0.0
     17.301        0.0        0.0        0.0
     17.542        0.0        0.0        0.0
     18.522        0.0        0.0        0.0
     19.406        0.0        0.0        0.0
     19.550        0.0        0.0        0.0
     19.576        0.0        0.0        0.0
     19.721        0.0        0.0        0.0
     19.983        0.0        0.0        0.0
     20.128        0.0        0.0        0.0
     20.154        0.0        0.0        0.0
     20.298        0.0        0.0        0.0
     21.180        0.0        0.0        0.0
     22.682        0.0        0.0        0.0
     24.183        0.0        0.0        0.0
     25.685        0.0        0.0        0.0
     27.187        0.0        0.0        0.0
     28.688        0.0        0.0        0.0
     30.190        0.0        0.0        0.0
     31.692        0.0        0.0        0.0
     33.193        0.0        0.0        0.0
     34.695        0.0        0.0        0.0
     36.197        0.0        0.0        0.0
     37.699        0.0        0.0        0.0
     39.200        0.0        0.0        0.0
     40.702        0.0        0.0        0.0
     41.608        0.0        0.0        0.0
     41.763        0.0        0.0        0.0
