           1  Distribution indicator
   12206844.3386962       Energy required by melter (W)
   13167104.2172421       Combustion Heat Transfer to Melter (W)
   1422.72205903257       Mean Surface Temperature (K)

         Relaxed Surface Temperature (K)

 X / Y          -0.310     -0.155      0.610      1.829      3.048      4.267      5.486      6.706      7.925      9.144     10.363
     -0.310        0.0        0.0        0.0        0.0        0.0        0.0        0.0        0.0        0.0        0.0        0.0
     -0.155        0.0        0.0        0.0        0.0        0.0        0.0        0.0        0.0        0.0        0.0        0.0
      0.744        0.0        0.0     1374.6     1339.7     1294.9     1326.5     1333.6     1306.6     1299.3     1313.6     1447.1
      2.232        0.0        0.0     1377.1     1359.3     1309.3     1343.0     1350.1     1320.3     1311.5     1316.0     1449.4
      2.977        0.0        0.0     1377.9     1370.5     1317.4     1351.9     1358.1     1326.5     1317.3     1318.5     1449.6
      3.174        0.0        0.0     1378.1     1373.4     1319.5     1354.3     1360.1     1328.2     1318.8     1319.2     1449.6
      3.383        0.0        0.0     1378.3     1376.6     1321.8     1356.8     1362.4     1330.0     1320.5     1319.9     1449.7
      3.409        0.0        0.0     1378.4     1376.9     1322.1     1357.1     1362.7     1330.2     1320.7     1320.0     1449.7
      3.619        0.0        0.0     1378.6     1380.0     1324.4     1359.5     1364.9     1332.0     1322.3     1320.7     1449.7
      4.011        0.0        0.0     1378.7     1384.4     1327.6     1363.4     1368.7     1335.1     1325.3     1323.0     1448.0
      4.221        0.0        0.0     1378.7     1386.7     1329.4     1365.5     1370.7     1336.8     1327.0     1324.2     1447.1
      4.247        0.0        0.0     1378.7     1387.0     1329.6     1365.7     1371.0     1337.0     1327.2     1324.4     1447.0
      4.456        0.0        0.0     1378.8     1389.3     1331.3     1367.8     1373.0     1338.7     1328.8     1325.6     1446.1
      4.653        0.0        0.0     1378.9     1391.5     1333.0     1369.7     1374.9     1340.3     1330.3     1326.7     1445.3
      5.326        0.0        0.0     1378.9     1398.9     1338.3     1376.1     1381.3     1345.7     1335.4     1331.2     1442.7
      6.214        0.0        0.0     1378.8     1408.1     1345.1     1384.0     1389.5     1352.7     1342.2     1337.9     1439.8
      6.443        0.0        0.0     1378.8     1410.5     1346.8     1386.1     1391.6     1354.4     1343.9     1339.7     1439.0
      6.469        0.0        0.0     1378.8     1410.8     1347.0     1386.3     1391.8     1354.7     1344.1     1339.9     1438.9
      6.697        0.0        0.0     1379.4     1413.0     1347.9     1388.1     1393.7     1356.3     1345.7     1341.6     1440.7
      7.128        0.0        0.0     1380.7     1417.1     1349.5     1391.4     1397.2     1359.4     1348.7     1344.8     1444.4
      7.356        0.0        0.0     1381.4     1419.3     1350.3     1393.2     1399.1     1361.0     1350.3     1346.5     1446.3
      7.382        0.0        0.0     1381.5     1419.5     1350.4     1393.4     1399.3     1361.2     1350.5     1346.7     1446.5
      7.592        0.0        0.0     1382.2     1421.5     1351.2     1394.9     1401.0     1362.7     1351.9     1348.3     1448.3
      7.807        0.0        0.0     1382.8     1423.5     1352.0     1396.6     1402.7     1364.3     1353.4     1349.9     1450.1
      8.549        0.0        0.0     1390.6     1427.1     1351.8     1401.7     1408.5     1369.1     1358.4     1354.7     1459.6
      9.488        0.0        0.0     1402.8     1430.2     1354.9     1407.4     1415.4     1374.5     1364.0     1360.5     1473.5
      9.716        0.0        0.0     1407.8     1430.2     1362.3     1407.9     1416.7     1374.8     1364.6     1361.6     1478.9
      9.742        0.0        0.0     1408.4     1430.2     1363.2     1407.9     1416.9     1374.8     1364.6     1361.7     1479.5
      9.970        0.0        0.0     1413.3     1430.2     1370.6     1408.3     1418.2     1375.1     1365.2     1362.8     1484.8
     10.401        0.0        0.0     1422.6     1430.2     1384.7     1409.1     1420.7     1375.7     1366.2     1364.8     1494.9
     10.629        0.0        0.0     1427.6     1430.2     1392.1     1409.5     1422.1     1376.0     1366.7     1365.8     1500.3
     10.655        0.0        0.0     1428.2     1430.2     1393.0     1409.5     1422.2     1376.0     1366.8     1366.0     1500.9
     10.884        0.0        0.0     1433.3     1432.8     1400.4     1409.9     1423.1     1376.2     1367.1     1366.9     1505.3
     11.835        0.0        0.0     1455.4     1464.5     1431.5     1412.1     1423.1     1375.3     1366.3     1370.1     1515.4
     12.779        0.0        0.0     1472.3     1477.1     1453.4     1425.1     1423.4     1384.6     1371.5     1373.7     1517.4
     13.001        0.0        0.0     1475.4     1476.7     1457.0     1430.1     1423.5     1388.6     1373.8     1374.6     1516.4
     13.027        0.0        0.0     1475.8     1476.6     1457.4     1430.7     1423.5     1389.1     1374.0     1374.7     1516.3
     13.250        0.0        0.0     1478.9     1476.2     1460.9     1435.7     1423.6     1393.1     1376.3     1375.6     1515.2
     13.667        0.0        0.0     1484.7     1475.3     1467.5     1445.1     1423.8     1400.6     1380.6     1377.3     1513.3
     13.889        0.0        0.0     1485.7     1476.8     1469.3     1449.2     1430.4     1407.8     1382.8     1378.5     1510.5
     13.916        0.0        0.0     1485.8     1477.0     1469.5     1449.6     1431.2     1408.7     1383.0     1378.7     1510.1
     14.136        0.0        0.0     1486.6     1478.6     1471.1     1453.6     1438.4     1416.2     1385.2     1380.0     1507.0
     14.346        0.0        0.0     1487.4     1480.2     1472.7     1457.3     1445.2     1423.3     1387.2     1381.2     1504.1
     15.095        0.0        0.0     1490.1     1485.8     1478.2     1470.6     1469.5     1448.6     1394.5     1385.4     1493.6
     16.071        0.0        0.0     1479.4     1484.7     1482.5     1473.4     1464.7     1463.0     1414.8     1389.2     1535.3
     16.312        0.0        0.0     1479.2     1484.6     1482.8     1473.3     1464.6     1463.1     1419.2     1391.6     1559.0
     16.338        0.0        0.0     1479.2     1484.5     1482.7     1473.3     1464.6     1463.1     1419.5     1391.6     1558.1
     16.579        0.0        0.0     1479.6     1483.8     1481.9     1473.0     1465.0     1462.8     1421.8     1391.3     1549.2
     17.034        0.0        0.0     1480.3     1482.6     1480.2     1472.3     1465.8     1462.2     1426.2     1390.6     1532.6
     17.275        0.0        0.0     1481.1     1481.4     1478.1     1470.8     1463.7     1461.1     1427.2     1390.8     1530.3
     17.301        0.0        0.0     1481.1     1481.3     1477.9     1470.6     1463.5     1460.9     1427.3     1390.8     1530.0
     17.542        0.0        0.0     1482.0     1480.1     1475.8     1469.1     1461.5     1459.8     1428.2     1390.9     1527.8
     18.522        0.0        0.0     1483.7     1475.1     1467.0     1461.1     1453.8     1453.8     1429.0     1392.0     1528.1
     19.406        0.0        0.0     1468.5     1465.5     1459.2     1454.8     1448.0     1449.4     1427.6     1392.7     1532.2
     19.550        0.0        0.0     1465.3     1463.2     1457.8     1453.8     1446.9     1449.0     1427.3     1392.8     1532.8
     19.576        0.0        0.0     1464.7     1462.8     1457.5     1453.6     1446.8     1448.9     1427.3     1392.8     1532.9
     19.721        0.0        0.0     1461.6     1460.4     1456.1     1452.6     1445.8     1448.4     1427.0     1392.8     1533.5
     19.983        0.0        0.0     1455.8     1456.1     1453.4     1450.8     1444.0     1447.6     1426.4     1392.9     1534.6
     20.128        0.0        0.0     1454.0     1454.4     1452.2     1449.8     1443.0     1447.3     1425.8     1393.6     1535.3
     20.154        0.0        0.0     1453.7     1454.1     1452.0     1449.7     1442.8     1447.2     1425.7     1393.8     1535.4
     20.298        0.0        0.0     1452.6     1452.7     1450.9     1448.8     1441.9     1447.1     1425.1     1394.8     1536.1
     21.180        0.0        0.0     1446.3     1445.2     1445.1     1443.5     1436.5     1446.5     1421.4     1412.1     1540.9
     22.682        0.0        0.0     1437.1     1436.4     1437.7     1435.2     1432.4     1446.6     1416.6     1425.2     1549.5
     24.183        0.0        0.0     1429.8     1430.0     1431.5     1429.4     1433.4     1441.1     1414.5     1425.8     1558.2
     25.685        0.0        0.0     1424.0     1424.9     1426.6     1426.4     1432.2     1432.3     1415.1     1426.5     1566.6
     27.187        0.0        0.0     1419.2     1420.8     1422.9     1424.1     1429.3     1426.3     1415.2     1427.1     1573.9
     28.688        0.0        0.0     1415.4     1417.4     1419.9     1421.8     1426.2     1422.6     1414.8     1428.0     1579.3
     30.190        0.0        0.0     1412.2     1414.7     1417.3     1419.5     1423.4     1419.9     1413.8     1428.9     1582.7
     31.692        0.0        0.0     1409.7     1412.3     1414.9     1417.2     1421.2     1418.0     1412.2     1429.8     1584.9
     33.193        0.0        0.0     1407.7     1410.5     1412.5     1415.0     1419.6     1416.5     1410.0     1430.6     1587.0
     34.695        0.0        0.0     1406.2     1409.3     1410.2     1412.8     1418.7     1415.6     1407.0     1431.2     1589.4
     36.197        0.0        0.0     1404.9     1408.6     1408.3     1410.6     1418.6     1415.5     1403.2     1432.0     1592.9
     37.699        0.0        0.0     1403.6     1408.2     1407.2     1408.5     1418.7     1416.2     1397.8     1433.5     1597.7
     39.200        0.0        0.0     1401.6     1407.8     1407.3     1406.4     1418.6     1417.6     1389.3     1435.6     1602.2
     40.702        0.0        0.0     1398.8     1406.8     1409.0     1403.6     1416.1     1424.6     1372.6     1436.5     1602.9
     41.608        0.0        0.0        0.0        0.0        0.0        0.0        0.0        0.0        0.0        0.0        0.0
     41.763        0.0        0.0        0.0        0.0        0.0        0.0        0.0        0.0        0.0        0.0        0.0

 X / Y          11.050     11.205     11.283
     -0.310        0.0        0.0        0.0
     -0.155        0.0        0.0        0.0
      0.744        0.0        0.0        0.0
      2.232        0.0        0.0        0.0
      2.977        0.0        0.0        0.0
      3.174        0.0        0.0        0.0
      3.383        0.0        0.0        0.0
      3.409        0.0        0.0        0.0
      3.619        0.0        0.0        0.0
      4.011        0.0        0.0        0.0
      4.221        0.0        0.0        0.0
      4.247        0.0        0.0        0.0
      4.456        0.0        0.0        0.0
      4.653        0.0        0.0        0.0
      5.326        0.0        0.0        0.0
      6.214        0.0        0.0        0.0
      6.443        0.0        0.0        0.0
      6.469        0.0        0.0        0.0
      6.697        0.0        0.0        0.0
      7.128        0.0        0.0        0.0
      7.356        0.0        0.0        0.0
      7.382        0.0        0.0        0.0
      7.592        0.0        0.0        0.0
      7.807        0.0        0.0        0.0
      8.549        0.0        0.0        0.0
      9.488        0.0        0.0        0.0
      9.716        0.0        0.0        0.0
      9.742        0.0        0.0        0.0
      9.970        0.0        0.0        0.0
     10.401        0.0        0.0        0.0
     10.629        0.0        0.0        0.0
     10.655        0.0        0.0        0.0
     10.884        0.0        0.0        0.0
     11.835        0.0        0.0        0.0
     12.779        0.0        0.0        0.0
     13.001        0.0        0.0        0.0
     13.027        0.0        0.0        0.0
     13.250        0.0        0.0        0.0
     13.667        0.0        0.0        0.0
     13.889        0.0        0.0        0.0
     13.916        0.0        0.0        0.0
     14.136        0.0        0.0        0.0
     14.346        0.0        0.0        0.0
     15.095        0.0        0.0        0.0
     16.071        0.0        0.0        0.0
     16.312        0.0        0.0        0.0
     16.338        0.0        0.0        0.0
     16.579        0.0        0.0        0.0
     17.034        0.0        0.0        0.0
     17.275        0.0        0.0        0.0
     17.301        0.0        0.0        0.0
     17.542        0.0        0.0        0.0
     18.522        0.0        0.0        0.0
     19.406        0.0        0.0        0.0
     19.550        0.0        0.0        0.0
     19.576        0.0        0.0        0.0
     19.721        0.0        0.0        0.0
     19.983        0.0        0.0        0.0
     20.128        0.0        0.0        0.0
     20.154        0.0        0.0        0.0
     20.298        0.0        0.0        0.0
     21.180        0.0        0.0        0.0
     22.682        0.0        0.0        0.0
     24.183        0.0        0.0        0.0
     25.685        0.0        0.0        0.0
     27.187        0.0        0.0        0.0
     28.688        0.0        0.0        0.0
     30.190        0.0        0.0        0.0
     31.692        0.0        0.0        0.0
     33.193        0.0        0.0        0.0
     34.695        0.0        0.0        0.0
     36.197        0.0        0.0        0.0
     37.699        0.0        0.0        0.0
     39.200        0.0        0.0        0.0
     40.702        0.0        0.0        0.0
     41.608        0.0        0.0        0.0
     41.763        0.0        0.0        0.0

   1422.72205903257       Input Mean Surface Temperature (K)
   1422.72205903257       Relaxed Mean Surface Temperature (K)
  0.200000000000000       Relaxation Factor
           0  number times t is >t_mx
